Timestamp (s),Voltage (V),SourceMeter Total Current (A), Pad PicoAmmeter Current (A), GR Calculated Current (A)
BEGIN
4653.88086,-2.30672E-5,1.06754E-10,2.66332E-9,-2.55656E-9
4654.95215,-1.00016,-1.39154E-10,4.27240E-9,-4.41156E-9
4655.59863,-2.00013,-1.90538E-10,-3.06215E-9,2.87161E-9
4656.24316,-3.00154,-2.60832E-10,2.66834E-9,-2.92917E-9
4658.12891,-4.00138,-3.01721E-10,4.24461E-9,-4.54633E-9
4658.77441,-5.00156,-3.69787E-10,2.95463E-9,-3.32441E-9
4660.66113,-6.00165,-4.11418E-10,4.15822E-9,-4.56964E-9
4661.30273,-7.00146,-4.64139E-10,2.97881E-9,-3.44295E-9
4663.18848,-8.00155,-5.09186E-10,4.30584E-9,-4.81502E-9
4663.83105,-9.00169,-5.66066E-10,3.07005E-9,-3.63611E-9
4665.71387,-10.00138,-6.09626E-10,3.62599E-9,-4.23561E-9
4666.35645,-11.00156,-6.65219E-10,3.02448E-9,-3.68970E-9
4668.24219,-12.00162,-7.01205E-10,4.30986E-9,-5.01107E-9
4668.88477,-13.00138,-7.63529E-10,-2.57036E-9,1.80683E-9
4669.52637,-14.00142,-8.32288E-10,4.34892E-9,-5.18120E-9
4670.16992,-15.00126,-8.99166E-10,-3.24187E-9,2.34270E-9
4670.81055,-16.00126,-9.44610E-10,3.11120E-9,-4.05581E-9
4672.69531,-17.00136,-9.62827E-10,4.34323E-9,-5.30605E-9
4673.33691,-18.00109,-1.02327E-9,-2.82806E-9,1.80479E-9
4673.98047,-19.00114,-1.10123E-9,4.25569E-9,-5.35693E-9
4674.62500,-20.00126,-1.17262E-9,3.04228E-9,-4.21490E-9
4676.50488,-21.00096,-1.18974E-9,3.07197E-9,-4.26172E-9
4678.38379,-22.07211,-1.36568E-9,3.14877E-9,-4.51444E-9
4680.26465,-23.07533,-1.19044E-9,2.94717E-9,-4.13761E-9
4682.14648,-24.06543,-9.61884E-10,2.31977E-9,-3.28165E-9
4682.79004,-25.07077,-1.18178E-9,-3.28916E-9,2.10738E-9
4683.43262,-26.07494,-1.09753E-9,4.34662E-9,-5.44415E-9
4684.07227,-27.06391,-1.67883E-9,3.16572E-9,-4.84455E-9
4685.95313,-28.06977,-1.69576E-9,3.07463E-9,-4.77039E-9
4687.83398,-29.07666,-1.76229E-9,3.07231E-9,-4.83460E-9
4689.71484,-30.06678,-1.88258E-9,2.63186E-9,-4.51445E-9
4690.36035,-31.07096,-1.36236E-9,-3.30807E-9,1.94571E-9
4691.00195,-32.07479,-1.56978E-9,4.36332E-9,-5.93310E-9
4691.64551,-33.06532,-1.72329E-9,-2.07848E-9,3.55194E-10
4692.28711,-34.06969,-2.12609E-9,-3.18511E-9,1.05903E-9
4692.93164,-35.07875,-1.83357E-9,4.36648E-9,-6.20006E-9
4693.57422,-36.06826,-1.93995E-9,-3.40266E-9,1.46271E-9
4694.21484,-37.07291,-2.13688E-9,2.92329E-9,-5.06017E-9
4696.09668,-38.07977,-2.21495E-9,2.94395E-9,-5.15890E-9
4696.74121,-39.08757,-1.82189E-9,-3.39319E-9,1.57130E-9
4697.38379,-40.07178,-1.77521E-9,4.29546E-9,-6.07068E-9
4698.02539,-41.07599,-2.05654E-9,3.05962E-9,-5.11616E-9
4699.90723,-42.08505,-1.84917E-9,2.88391E-9,-4.73308E-9
4701.78809,-43.07220,-2.12930E-9,3.10330E-9,-5.23260E-9
4703.67383,-44.07686,-2.01813E-9,4.18589E-9,-6.20402E-9
4704.31445,-45.08490,-2.02688E-9,-3.40265E-9,1.37577E-9
4704.95801,-46.06817,-2.10441E-9,4.24252E-9,-6.34692E-9
4705.60645,-47.07669,-2.36424E-9,2.33869E-9,-4.70293E-9
4706.25098,-48.08445,-2.20355E-9,-3.43103E-9,1.22748E-9
4706.89258,-49.07024,-2.34796E-9,4.19301E-9,-6.54097E-9
4707.53418,-50.07737,-2.63231E-9,-2.70273E-9,7.04270E-11
4708.17285,-51.08121,-2.45825E-9,-3.45413E-9,9.95875E-10
4708.81543,-52.07030,-2.39088E-9,4.17191E-9,-6.56279E-9
4709.45898,-53.07444,-2.57933E-9,-3.59183E-9,1.01249E-9
4710.10645,-54.08115,-2.73695E-9,3.05065E-9,-5.78760E-9
4711.99121,-55.07277,-2.90159E-9,4.12881E-9,-7.03040E-9
4712.63574,-56.07525,-2.55369E-9,-3.46886E-9,9.15172E-10
4713.27930,-57.08661,-2.74833E-9,4.27351E-9,-7.02184E-9
4713.92188,-58.07063,-3.03996E-9,3.06495E-9,-6.10491E-9
4715.80957,-59.07687,-3.16238E-9,3.37846E-9,-6.54084E-9
4716.45313,-60.08124,-2.73368E-9,-3.61074E-9,8.77056E-10
4717.09668,-61.06867,-3.23697E-9,4.08114E-9,-7.31812E-9
4717.74023,-62.07523,-3.44454E-9,3.00122E-9,-6.44576E-9
4719.62793,-63.08076,-3.08248E-9,4.00164E-9,-7.08412E-9
4720.26953,-64.07079,-3.18802E-9,-3.54453E-9,3.56516E-10
4720.91895,-65.07342,-3.31400E-9,4.25363E-9,-7.56763E-9
4721.56348,-66.08131,-3.11109E-9,3.70774E-9,-6.81883E-9
4722.20801,-67.06933,-3.22945E-9,-3.46886E-9,2.39412E-10
4722.85059,-68.07475,-3.13366E-9,4.18335E-9,-7.31702E-9
4723.49316,-69.08108,-3.18247E-9,-2.27710E-9,-9.05372E-10
4724.13672,-70.06643,-3.51286E-9,-3.65804E-9,1.45183E-10
4724.78027,-71.07333,-3.92947E-9,4.18870E-9,-8.11816E-9
4725.42285,-72.08057,-4.00521E-9,-3.59183E-9,-4.13383E-10
4726.06641,-73.06933,-3.72334E-9,2.85403E-9,-6.57737E-9
4727.94727,-74.07352,-3.61497E-9,2.95098E-9,-6.56596E-9
4729.82715,-75.08120,-3.99595E-9,2.91434E-9,-6.91029E-9
4731.70801,-76.07045,-3.46335E-9,3.06817E-9,-6.53152E-9
4733.58887,-77.07553,-4.15950E-9,2.78658E-9,-6.94608E-9
4735.47461,-78.08305,-4.18406E-9,3.35456E-9,-7.53862E-9
4736.11719,-79.07014,-4.10312E-9,-3.62020E-9,-4.82924E-10
4736.75977,-80.07428,-3.79244E-9,4.12256E-9,-7.91500E-9
4737.40918,-81.08063,-3.68453E-9,2.88610E-9,-6.57063E-9
4739.29004,-82.06747,-4.12396E-9,2.66133E-9,-6.78529E-9
4741.17578,-83.07396,-3.85383E-9,3.47076E-9,-7.32459E-9
4741.81836,-84.07978,-4.22836E-9,-3.74315E-9,-4.85207E-10
4742.46289,-85.08811,-4.58340E-9,4.09227E-9,-8.67567E-9
4743.10352,-86.07537,-4.64453E-9,-3.62020E-9,-1.02432E-9
4743.74609,-87.08141,-4.65751E-9,-2.53487E-9,-2.12263E-9
4744.38965,-88.08535,-4.22554E-9,4.06379E-9,-8.28933E-9
4745.03906,-89.07126,-4.38157E-9,-3.85666E-9,-5.24914E-10
4745.68359,-90.08012,-4.84898E-9,2.68145E-9,-7.53043E-9
4747.57227,-91.08627,-4.45241E-9,3.81334E-9,-8.26576E-9
4748.21387,-92.07422,-4.82992E-9,-3.83774E-9,-9.92186E-10
4748.85840,-93.08102,-5.24510E-9,3.79206E-9,-9.03715E-9
4749.50391,-94.08672,-4.68012E-9,2.52205E-9,-7.20217E-9
4751.38672,-95.07344,-4.91937E-9,2.38096E-9,-7.30034E-9
4753.27539,-96.08002,-5.46915E-9,3.15217E-9,-8.62132E-9
4753.91504,-97.08747,-5.23549E-9,-4.38633E-9,-8.49162E-10
4754.55566,-98.07315,-5.48281E-9,3.57204E-9,-9.05486E-9
4755.19922,-99.07941,-5.66211E-9,-4.43362E-9,-1.22849E-9
4755.84766,-100.08564,-5.95779E-9,-3.52795E-9,-2.42984E-9
4756.49023,-101.07292,-5.78377E-9,3.21346E-9,-8.99723E-9
4757.13477,-102.07755,-5.95482E-9,-4.97275E-9,-9.82061E-10
4757.77930,-103.08385,-6.41232E-9,2.96970E-9,-9.38201E-9
4758.42383,-104.07234,-6.53068E-9,2.40405E-9,-8.93473E-9
4759.06738,-105.07909,-7.24654E-9,-5.94698E-9,-1.29956E-9
4759.71094,-106.08351,-7.13812E-9,1.62996E-9,-8.76808E-9
4761.89844,-107.07007,-8.40995E-9,-7.55469E-9,-8.55254E-10
4762.54199,-108.07829,-9.17337E-9,-2.84463E-9,-6.32874E-9
4764.72949,-109.08504,-1.08903E-8,-2.36144E-9,-8.52887E-9
4766.61230,-110.07300,-1.40931E-8,-1.27045E-8,-1.38861E-9
4767.25488,-111.08054,-2.04269E-8,-8.18301E-9,-1.22439E-8
4767.90039,-112.08533,-3.40858E-8,-2.88259E-8,-5.25991E-9
4769.31934,-113.07458,-7.00711E-8,-6.57117E-8,-4.35939E-9
4769.96191,-114.08403,-2.05881E-7,-2.05747E-7,-1.33425E-10
4770.77539,-115.08746,-1.40268E-6,-1.38862E-6,-1.40590E-8
4772.27051,-116.07967,-4.08087E-5,-0.00010,5.91927E-5
4773.60059,-115.82468,-0.00010,-0.00010,-5.87359E-10
